Bruker Nano GmbH Berlin, Germany
Esprit 1.9

Date: 15.09.2015 04:31:17
Real time: 15455
Life time: 14830
Pulse density: 0


Detector type: XFlash 430
Window type: Custom type
Detector thickness: 0.45
Si dead layer:0.029

Calibration, lin.: 10.004
Calibration, abs.: -959.083
Mn FWHM: 150.501
Fano factor: 0.11
Channels: 4096

Energy Counts
-0.9591    0
-0.9491    0
-0.9391    0
-0.9291    0
-0.9191    0
-0.9091    0
-0.8991    0
-0.8891    0
-0.8791    0
 -0.869    0
 -0.859    0
 -0.849    0
 -0.839    0
 -0.829    0
 -0.819    0
 -0.809    0
 -0.799    0
 -0.789    0
 -0.779    0
 -0.769    0
 -0.759    0
 -0.749    0
 -0.739    0
 -0.729    0
 -0.719    0
 -0.709    0
 -0.699    0
 -0.689    0
 -0.679    0
 -0.669    0
 -0.659    0
 -0.649    0
 -0.639    0
 -0.629    0
-0.6189    0
-0.6089    0
-0.5989    0
-0.5889    0
-0.5789    0
-0.5689    0
-0.5589    0
-0.5489    0
-0.5389    0
-0.5289    0
-0.5189    0
-0.5089    0
-0.4989    0
-0.4889    0
-0.4789    0
-0.4689    0
-0.4589    0
-0.4489    0
-0.4389    0
-0.4289    0
-0.4189    0
-0.4089    0
-0.3989    0
-0.3889    0
-0.3789    0
-0.3688    0
-0.3588    0
-0.3488    0
-0.3388    0
-0.3288    0
-0.3188    0
-0.3088    0
-0.2988    0
-0.2888    0
-0.2788    0
-0.2688    0
-0.2588    0
-0.2488    0
-0.2388    0
-0.2288    0
-0.2188    0
-0.2088    0
-0.1988    0
-0.1888    0
-0.1788    0
-0.1688    0
-0.1588    0
-0.1488    1
-0.1388    0
-0.1288    3
-0.1187   11
-0.1087   19
-0.0987   62
-0.0887  110
-0.0787  181
-0.0687  277
-0.0587  486
-0.0487  690
-0.0387  961
-0.0287 1134
-0.0187 1353
-0.0087 1517
 0.0013 1502
 0.0113 1412
 0.0213 1287
 0.0313 1078
 0.0413  917
 0.0513  735
 0.0613  568
 0.0713  406
 0.0813  276
 0.0913  188
 0.1013  113
 0.1113   83
 0.1213   36
 0.1314   28
 0.1414   13
 0.1514    3
 0.1614    2
 0.1714    0
 0.1814    0
 0.1914    0
 0.2014    0
 0.2114    0
 0.2214    0
 0.2314    0
 0.2414    0
 0.2514    0
 0.2614    0
 0.2714    0
 0.2814    0
 0.2914    0
 0.3014    0
 0.3114    0
 0.3214    0
 0.3314    0
 0.3414    0
 0.3514    0
 0.3614    0
 0.3714    0
 0.3815    0
 0.3915    0
 0.4015    0
 0.4115    0
 0.4215    0
 0.4315    0
 0.4415    0
 0.4515    0
 0.4615    0
 0.4715    0
 0.4815    0
 0.4915    0
 0.5015    0
 0.5115    0
 0.5215    0
 0.5315    0
 0.5415    0
 0.5515    0
 0.5615    0
 0.5715    0
 0.5815    0
 0.5915    0
 0.6015    0
 0.6115    0
 0.6215    0
 0.6316    0
 0.6416    0
 0.6516    0
 0.6616    0
 0.6716    0
 0.6816    0
 0.6916    0
 0.7016    0
 0.7116    0
 0.7216    0
 0.7316    0
 0.7416    0
 0.7516    0
 0.7616    0
 0.7716    0
 0.7816    0
 0.7916    0
 0.8016    0
 0.8116    0
 0.8216    0
 0.8316    0
 0.8416    0
 0.8516    0
 0.8616    0
 0.8716    0
 0.8817    0
 0.8917    0
 0.9017    0
 0.9117    0
 0.9217    0
 0.9317    0
 0.9417    0
 0.9517    0
 0.9617    0
 0.9717    0
 0.9817    0
 0.9917    0
 1.0017    0
 1.0117    0
 1.0217    0
 1.0317    0
 1.0417    0
 1.0517    0
 1.0617    0
 1.0717    0
 1.0817    0
 1.0917    0
 1.1017    0
 1.1117    0
 1.1217    0
 1.1318    0
 1.1418    0
 1.1518    0
 1.1618    0
 1.1718    0
 1.1818    0
 1.1918    0
 1.2018    0
 1.2118    0
 1.2218    0
 1.2318    0
 1.2418    0
 1.2518    0
 1.2618    0
 1.2718    0
 1.2818    0
 1.2918    0
 1.3018    0
 1.3118    0
 1.3218    0
 1.3318    0
 1.3418    0
 1.3518    0
 1.3618    0
 1.3718    0
 1.3819    0
 1.3919    0
 1.4019    0
 1.4119    0
 1.4219    0
 1.4319    0
 1.4419    0
 1.4519    0
 1.4619    0
 1.4719    0
 1.4819    0
 1.4919    0
 1.5019    0
 1.5119    0
 1.5219    0
 1.5319    0
 1.5419    0
 1.5519    0
 1.5619    0
 1.5719    0
 1.5819    0
 1.5919    0
 1.6019    0
 1.6119    0
 1.6219    0
  1.632    0
  1.642    0
  1.652    0
  1.662    0
  1.672    0
  1.682    0
  1.692    0
  1.702    0
  1.712    0
  1.722    0
  1.732    0
  1.742    0
  1.752    0
  1.762    0
  1.772    0
  1.782    0
  1.792    0
  1.802    0
  1.812    0
  1.822    0
  1.832    0
  1.842    0
  1.852    0
  1.862    0
  1.872    0
 1.8821    0
 1.8921    0
 1.9021    0
 1.9121    0
 1.9221    0
 1.9321    0
 1.9421    0
 1.9521    0
 1.9621    0
 1.9721    0
 1.9821    0
 1.9921    0
 2.0021    0
 2.0121    0
 2.0221    0
 2.0321    0
 2.0421    0
 2.0521    0
 2.0621    0
 2.0721    0
 2.0821    0
 2.0921    0
 2.1021    0
 2.1121    0
 2.1221    0
 2.1322    0
 2.1422    0
 2.1522    0
 2.1622    0
 2.1722    0
 2.1822    0
 2.1922    0
 2.2022    0
 2.2122    0
 2.2222    0
 2.2322    0
 2.2422    0
 2.2522    0
 2.2622    0
 2.2722    0
 2.2822    0
 2.2922    0
 2.3022    0
 2.3122    0
 2.3222    0
 2.3322    0
 2.3422    0
 2.3522    0
 2.3622    0
 2.3722    0
 2.3823    0
 2.3923    0
 2.4023    0
 2.4123    0
 2.4223    0
 2.4323    0
 2.4423    0
 2.4523    0
 2.4623    0
 2.4723    0
 2.4823    0
 2.4923    0
 2.5023    0
 2.5123    0
 2.5223    0
 2.5323    0
 2.5423    0
 2.5523    0
 2.5623    0
 2.5723    0
 2.5823    0
 2.5923    0
 2.6023    0
 2.6123    0
 2.6223    0
 2.6324    0
 2.6424    0
 2.6524    0
 2.6624    0
 2.6724    0
 2.6824    0
 2.6924    0
 2.7024    0
 2.7124    0
 2.7224    0
 2.7324    0
 2.7424    0
 2.7524    0
 2.7624    0
 2.7724    0
 2.7824    0
 2.7924    0
 2.8024    0
 2.8124    0
 2.8224    0
 2.8324    0
 2.8424    0
 2.8524    0
 2.8624    0
 2.8724    0
 2.8825    0
 2.8925    0
 2.9025    0
 2.9125    0
 2.9225    0
 2.9325    0
 2.9425    0
 2.9525    0
 2.9625    0
 2.9725    0
 2.9825    0
 2.9925    0
 3.0025    0
 3.0125    0
 3.0225    0
 3.0325    0
 3.0425    0
 3.0525    0
 3.0625    0
 3.0725    0
 3.0825    0
 3.0925    0
 3.1025    0
 3.1125    0
 3.1225    0
 3.1326    0
 3.1426    0
 3.1526    0
 3.1626    0
 3.1726    0
 3.1826    0
 3.1926    0
 3.2026    0
 3.2126    0
 3.2226    0
 3.2326    0
 3.2426    0
 3.2526    0
 3.2626    0
 3.2726    0
 3.2826    0
 3.2926    0
 3.3026    0
 3.3126    0
 3.3226    0
 3.3326    0
 3.3426    0
 3.3526    0
 3.3626    0
 3.3726    0
 3.3827    0
 3.3927    0
 3.4027    0
 3.4127    0
 3.4227    0
 3.4327    0
 3.4427    0
 3.4527    0
 3.4627    0
 3.4727    0
 3.4827    0
 3.4927    0
 3.5027    0
 3.5127    0
 3.5227    0
 3.5327    0
 3.5427    0
 3.5527    0
 3.5627    0
 3.5727    0
 3.5827    0
 3.5927    0
 3.6027    0
 3.6127    0
 3.6227    0
 3.6328    0
 3.6428    0
 3.6528    0
 3.6628    0
 3.6728    0
 3.6828    0
 3.6928    0
 3.7028    0
 3.7128    0
 3.7228    0
 3.7328    0
 3.7428    0
 3.7528    0
 3.7628    0
 3.7728    0
 3.7828    0
 3.7928    0
 3.8028    0
 3.8128    0
 3.8228    0
 3.8328    0
 3.8428    0
 3.8528    0
 3.8628    0
 3.8728    0
 3.8829    0
 3.8929    0
 3.9029    0
 3.9129    0
 3.9229    0
 3.9329    0
 3.9429    0
 3.9529    0
 3.9629    0
 3.9729    0
 3.9829    0
 3.9929    0
 4.0029    0
 4.0129    0
 4.0229    0
 4.0329    0
 4.0429    0
 4.0529    0
 4.0629    0
 4.0729    0
 4.0829    0
 4.0929    0
 4.1029    0
 4.1129    0
 4.1229    0
  4.133    0
  4.143    0
  4.153    0
  4.163    0
  4.173    0
  4.183    0
  4.193    0
  4.203    0
  4.213    0
  4.223    0
  4.233    0
  4.243    0
  4.253    0
  4.263    0
  4.273    0
  4.283    0
  4.293    0
  4.303    0
  4.313    0
  4.323    0
  4.333    0
  4.343    0
  4.353    0
  4.363    0
  4.373    0
 4.3831    0
 4.3931    0
 4.4031    0
 4.4131    0
 4.4231    0
 4.4331    0
 4.4431    0
 4.4531    0
 4.4631    0
 4.4731    0
 4.4831    0
 4.4931    0
 4.5031    0
 4.5131    0
 4.5231    0
 4.5331    0
 4.5431    0
 4.5531    0
 4.5631    0
 4.5731    0
 4.5831    0
 4.5931    0
 4.6031    0
 4.6131    0
 4.6231    0
 4.6332    0
 4.6432    0
 4.6532    0
 4.6632    0
 4.6732    0
 4.6832    0
 4.6932    0
 4.7032    0
 4.7132    0
 4.7232    0
 4.7332    0
 4.7432    0
 4.7532    0
 4.7632    0
 4.7732    0
 4.7832    0
 4.7932    0
 4.8032    0
 4.8132    0
 4.8232    0
 4.8332    0
 4.8432    0
 4.8532    0
 4.8632    0
 4.8732    0
 4.8833    0
 4.8933    0
 4.9033    0
 4.9133    0
 4.9233    0
 4.9333    0
 4.9433    0
 4.9533    0
 4.9633    0
 4.9733    0
 4.9833    0
 4.9933    0
 5.0033    0
 5.0133    0
 5.0233    0
 5.0333    0
 5.0433    0
 5.0533    0
 5.0633    0
 5.0733    0
 5.0833    0
 5.0933    0
 5.1033    0
 5.1133    0
 5.1233    0
 5.1334    0
 5.1434    0
 5.1534    0
 5.1634    0
 5.1734    0
 5.1834    0
 5.1934    0
 5.2034    0
 5.2134    0
 5.2234    0
 5.2334    0
 5.2434    0
 5.2534    0
 5.2634    0
 5.2734    0
 5.2834    0
 5.2934    0
 5.3034    0
 5.3134    0
 5.3234    0
 5.3334    0
 5.3434    0
 5.3534    0
 5.3634    0
 5.3734    0
 5.3835    0
 5.3935    0
 5.4035    0
 5.4135    0
 5.4235    0
 5.4335    0
 5.4435    0
 5.4535    0
 5.4635    0
 5.4735    0
 5.4835    0
 5.4935    0
 5.5035    0
 5.5135    0
 5.5235    0
 5.5335    0
 5.5435    0
 5.5535    0
 5.5635    0
 5.5735    0
 5.5835    0
 5.5935    0
 5.6035    0
 5.6135    0
 5.6235    0
 5.6336    0
 5.6436    0
 5.6536    0
 5.6636    0
 5.6736    0
 5.6836    0
 5.6936    0
 5.7036    0
 5.7136    0
 5.7236    0
 5.7336    0
 5.7436    0
 5.7536    0
 5.7636    0
 5.7736    0
 5.7836    0
 5.7936    0
 5.8036    0
 5.8136    0
 5.8236    0
 5.8336    0
 5.8436    0
 5.8536    0
 5.8636    0
 5.8736    0
 5.8837    0
 5.8937    0
 5.9037    0
 5.9137    0
 5.9237    0
 5.9337    0
 5.9437    0
 5.9537    0
 5.9637    0
 5.9737    0
 5.9837    0
 5.9937    0
 6.0037    0
 6.0137    0
 6.0237    0
 6.0337    0
 6.0437    0
 6.0537    0
 6.0637    0
 6.0737    0
 6.0837    0
 6.0937    0
 6.1037    0
 6.1137    0
 6.1237    0
 6.1338    0
 6.1438    0
 6.1538    0
 6.1638    0
 6.1738    0
 6.1838    0
 6.1938    0
 6.2038    0
 6.2138    0
 6.2238    0
 6.2338    0
 6.2438    0
 6.2538    0
 6.2638    0
 6.2738    0
 6.2838    0
 6.2938    0
 6.3038    0
 6.3138    0
 6.3238    0
 6.3338    0
 6.3438    0
 6.3538    0
 6.3638    0
 6.3738    0
 6.3839    0
 6.3939    0
 6.4039    0
 6.4139    0
 6.4239    0
 6.4339    0
 6.4439    0
 6.4539    0
 6.4639    0
 6.4739    0
 6.4839    0
 6.4939    0
 6.5039    0
 6.5139    0
 6.5239    0
 6.5339    0
 6.5439    0
 6.5539    0
 6.5639    0
 6.5739    0
 6.5839    0
 6.5939    0
 6.6039    0
 6.6139    0
 6.6239    0
  6.634    0
  6.644    0
  6.654    0
  6.664    0
  6.674    0
  6.684    0
  6.694    0
  6.704    0
  6.714    0
  6.724    0
  6.734    0
  6.744    0
  6.754    0
  6.764    0
  6.774    0
  6.784    0
  6.794    0
  6.804    0
  6.814    0
  6.824    0
  6.834    0
  6.844    0
  6.854    0
  6.864    0
  6.874    0
 6.8841    0
 6.8941    0
 6.9041    0
 6.9141    0
 6.9241    0
 6.9341    0
 6.9441    0
 6.9541    0
 6.9641    0
 6.9741    0
 6.9841    0
 6.9941    0
 7.0041    0
 7.0141    0
 7.0241    0
 7.0341    0
 7.0441    0
 7.0541    0
 7.0641    0
 7.0741    0
 7.0841    0
 7.0941    0
 7.1041    0
 7.1141    0
 7.1241    0
 7.1342    0
 7.1442    0
 7.1542    0
 7.1642    0
 7.1742    0
 7.1842    0
 7.1942    0
 7.2042    0
 7.2142    0
 7.2242    0
 7.2342    0
 7.2442    0
 7.2542    0
 7.2642    0
 7.2742    0
 7.2842    0
 7.2942    0
 7.3042    0
 7.3142    0
 7.3242    0
 7.3342    0
 7.3442    0
 7.3542    0
 7.3642    0
 7.3742    0
 7.3843    0
 7.3943    0
 7.4043    0
 7.4143    0
 7.4243    0
 7.4343    0
 7.4443    0
 7.4543    0
 7.4643    0
 7.4743    0
 7.4843    0
 7.4943    0
 7.5043    0
 7.5143    0
 7.5243    0
 7.5343    0
 7.5443    0
 7.5543    0
 7.5643    0
 7.5743    0
 7.5843    0
 7.5943    0
 7.6043    0
 7.6143    0
 7.6243    0
 7.6344    0
 7.6444    0
 7.6544    0
 7.6644    0
 7.6744    0
 7.6844    0
 7.6944    0
 7.7044    0
 7.7144    0
 7.7244    0
 7.7344    0
 7.7444    0
 7.7544    0
 7.7644    0
 7.7744    0
 7.7844    0
 7.7944    0
 7.8044    0
 7.8144    0
 7.8244    0
 7.8344    0
 7.8444    0
 7.8544    0
 7.8644    0
 7.8744    0
 7.8845    0
 7.8945    0
 7.9045    0
 7.9145    0
 7.9245    0
 7.9345    0
 7.9445    0
 7.9545    0
 7.9645    0
 7.9745    0
 7.9845    0
 7.9945    0
 8.0045    0
 8.0145    0
 8.0245    0
 8.0345    0
 8.0445    0
 8.0545    0
 8.0645    0
 8.0745    0
 8.0845    0
 8.0945    0
 8.1045    0
 8.1145    0
 8.1245    0
 8.1346    0
 8.1446    0
 8.1546    0
 8.1646    0
 8.1746    0
 8.1846    0
 8.1946    0
 8.2046    0
 8.2146    0
 8.2246    0
 8.2346    0
 8.2446    0
 8.2546    0
 8.2646    0
 8.2746    0
 8.2846    0
 8.2946    0
 8.3046    0
 8.3146    0
 8.3246    0
 8.3346    0
 8.3446    0
 8.3546    0
 8.3646    0
 8.3746    0
 8.3847    0
 8.3947    0
 8.4047    0
 8.4147    0
 8.4247    0
 8.4347    0
 8.4447    0
 8.4547    0
 8.4647    0
 8.4747    0
 8.4847    0
 8.4947    0
 8.5047    0
 8.5147    0
 8.5247    0
 8.5347    0
 8.5447    0
 8.5547    0
 8.5647    0
 8.5747    0
 8.5847    0
 8.5947    0
 8.6047    0
 8.6147    0
 8.6247    0
 8.6348    0
 8.6448    0
 8.6548    0
 8.6648    0
 8.6748    0
 8.6848    0
 8.6948    0
 8.7048    0
 8.7148    0
 8.7248    0
 8.7348    0
 8.7448    0
 8.7548    0
 8.7648    0
 8.7748    0
 8.7848    0
 8.7948    0
 8.8048    0
 8.8148    0
 8.8248    0
 8.8348    0
 8.8448    0
 8.8548    0
 8.8648    0
 8.8748    0
 8.8849    0
 8.8949    0
 8.9049    0
 8.9149    0
 8.9249    0
 8.9349    0
 8.9449    0
 8.9549    0
 8.9649    0
 8.9749    0
 8.9849    0
 8.9949    0
 9.0049    0
 9.0149    0
 9.0249    0
 9.0349    0
 9.0449    0
 9.0549    0
 9.0649    0
 9.0749    0
 9.0849    0
 9.0949    0
 9.1049    0
 9.1149    0
 9.1249    0
  9.135    0
  9.145    0
  9.155    0
  9.165    0
  9.175    0
  9.185    0
  9.195    0
  9.205    0
  9.215    0
  9.225    0
  9.235    0
  9.245    0
  9.255    0
  9.265    0
  9.275    0
  9.285    0
  9.295    0
  9.305    0
  9.315    0
  9.325    0
  9.335    0
  9.345    0
  9.355    0
  9.365    0
  9.375    0
 9.3851    0
 9.3951    0
 9.4051    0
 9.4151    0
 9.4251    0
 9.4351    0
 9.4451    0
 9.4551    0
 9.4651    0
 9.4751    0
 9.4851    0
 9.4951    0
 9.5051    0
 9.5151    0
 9.5251    0
 9.5351    0
 9.5451    0
 9.5551    0
 9.5651    0
 9.5751    0
 9.5851    0
 9.5951    0
 9.6051    0
 9.6151    0
 9.6251    0
 9.6352    0
 9.6452    0
 9.6552    0
 9.6652    0
 9.6752    0
 9.6852    0
 9.6952    0
 9.7052    0
 9.7152    0
 9.7252    0
 9.7352    0
 9.7452    0
 9.7552    0
 9.7652    0
 9.7752    0
 9.7852    0
 9.7952    0
 9.8052    0
 9.8152    0
 9.8252    0
 9.8352    0
 9.8452    0
 9.8552    0
 9.8652    0
 9.8752    0
 9.8853    0
 9.8953    0
 9.9053    0
 9.9153    0
 9.9253    0
 9.9353    0
 9.9453    0
 9.9553    0
 9.9653    0
 9.9753    0
 9.9853    0
 9.9953    0
10.0053    0
10.0153    0
10.0253    0
10.0353    0
10.0453    0
10.0553    0
10.0653    0
10.0753    0
10.0853    0
10.0953    0
10.1053    0
10.1153    0
10.1253    0
10.1354    0
10.1454    0
10.1554    0
10.1654    0
10.1754    0
10.1854    0
10.1954    0
10.2054    0
10.2154    0
10.2254    0
10.2354    0
10.2454    0
10.2554    0
10.2654    0
10.2754    0
10.2854    0
10.2954    0
10.3054    0
10.3154    0
10.3254    0
10.3354    0
10.3454    0
10.3554    0
10.3654    0
10.3754    0
10.3855    0
10.3955    0
10.4055    0
10.4155    0
10.4255    0
10.4355    0
10.4455    0
10.4555    0
10.4655    0
10.4755    0
10.4855    0
10.4955    0
10.5055    0
10.5155    0
10.5255    0
10.5355    0
10.5455    0
10.5555    0
10.5655    0
10.5755    0
10.5855    0
10.5955    0
10.6055    0
10.6155    0
10.6255    0
10.6356    0
10.6456    0
10.6556    0
10.6656    0
10.6756    0
10.6856    0
10.6956    0
10.7056    0
10.7156    0
10.7256    0
10.7356    0
10.7456    0
10.7556    0
10.7656    0
10.7756    0
10.7856    0
10.7956    0
10.8056    0
10.8156    0
10.8256    0
10.8356    0
10.8456    0
10.8556    0
10.8656    0
10.8756    0
10.8857    0
10.8957    0
10.9057    0
10.9157    0
10.9257    0
10.9357    0
10.9457    0
10.9557    0
10.9657    0
10.9757    0
10.9857    0
10.9957    0
11.0057    0
11.0157    0
11.0257    0
11.0357    0
11.0457    0
11.0557    0
11.0657    0
11.0757    0
11.0857    0
11.0957    0
11.1057    0
11.1157    0
11.1257    0
11.1358    0
11.1458    0
11.1558    0
11.1658    0
11.1758    0
11.1858    0
11.1958    0
11.2058    0
11.2158    0
11.2258    0
11.2358    0
11.2458    0
11.2558    0
11.2658    0
11.2758    0
11.2858    0
11.2958    0
11.3058    0
11.3158    0
11.3258    0
11.3358    0
11.3458    0
11.3558    0
11.3658    0
11.3758    0
11.3859    0
11.3959    0
11.4059    0
11.4159    0
11.4259    0
11.4359    0
11.4459    0
11.4559    0
11.4659    0
11.4759    0
11.4859    0
11.4959    0
11.5059    0
11.5159    0
11.5259    0
11.5359    0
11.5459    0
11.5559    0
11.5659    0
11.5759    0
11.5859    0
11.5959    0
11.6059    0
11.6159    0
11.6259    0
 11.636    0
 11.646    0
 11.656    0
 11.666    0
 11.676    0
 11.686    0
 11.696    0
 11.706    0
 11.716    0
 11.726    0
 11.736    0
 11.746    0
 11.756    0
 11.766    0
 11.776    0
 11.786    0
 11.796    0
 11.806    0
 11.816    0
 11.826    0
 11.836    0
 11.846    0
 11.856    0
 11.866    0
 11.876    0
11.8861    0
11.8961    0
11.9061    0
11.9161    0
11.9261    0
11.9361    0
11.9461    0
11.9561    0
11.9661    0
11.9761    0
11.9861    0
11.9961    0
12.0061    0
12.0161    0
12.0261    0
12.0361    0
12.0461    0
12.0561    0
12.0661    0
12.0761    0
12.0861    0
12.0961    0
12.1061    0
12.1161    0
12.1261    0
12.1362    0
12.1462    0
12.1562    0
12.1662    0
12.1762    0
12.1862    0
12.1962    0
12.2062    0
12.2162    0
12.2262    0
12.2362    0
12.2462    0
12.2562    0
12.2662    0
12.2762    0
12.2862    0
12.2962    0
12.3062    0
12.3162    0
12.3262    0
12.3362    0
12.3462    0
12.3562    0
12.3662    0
12.3762    0
12.3863    0
12.3963    0
12.4063    0
12.4163    0
12.4263    0
12.4363    0
12.4463    0
12.4563    0
12.4663    0
12.4763    0
12.4863    0
12.4963    0
12.5063    0
12.5163    0
12.5263    0
12.5363    0
12.5463    0
12.5563    0
12.5663    0
12.5763    0
12.5863    0
12.5963    0
12.6063    0
12.6163    0
12.6263    0
12.6364    0
12.6464    0
12.6564    0
12.6664    0
12.6764    0
12.6864    0
12.6964    0
12.7064    0
12.7164    0
12.7264    0
12.7364    0
12.7464    0
12.7564    0
12.7664    0
12.7764    0
12.7864    0
12.7964    0
12.8064    0
12.8164    0
12.8264    0
12.8364    0
12.8464    0
12.8564    0
12.8664    0
12.8764    0
12.8865    0
12.8965    0
12.9065    0
12.9165    0
12.9265    0
12.9365    0
12.9465    0
12.9565    0
12.9665    0
12.9765    0
12.9865    0
12.9965    0
13.0065    0
13.0165    0
13.0265    0
13.0365    0
13.0465    0
13.0565    0
13.0665    0
13.0765    0
13.0865    0
13.0965    0
13.1065    0
13.1165    0
13.1265    0
13.1366    0
13.1466    0
13.1566    0
13.1666    0
13.1766    0
13.1866    0
13.1966    0
13.2066    0
13.2166    0
13.2266    0
13.2366    0
13.2466    0
13.2566    0
13.2666    0
13.2766    0
13.2866    0
13.2966    0
13.3066    0
13.3166    0
13.3266    0
13.3366    0
13.3466    0
13.3566    0
13.3666    0
13.3766    0
13.3867    0
13.3967    0
13.4067    0
13.4167    0
13.4267    0
13.4367    0
13.4467    0
13.4567    0
13.4667    0
13.4767    0
13.4867    0
13.4967    0
13.5067    0
13.5167    0
13.5267    0
13.5367    0
13.5467    0
13.5567    0
13.5667    0
13.5767    0
13.5867    0
13.5967    0
13.6067    0
13.6167    0
13.6267    0
13.6368    0
13.6468    0
13.6568    0
13.6668    0
13.6768    0
13.6868    0
13.6968    0
13.7068    0
13.7168    0
13.7268    0
13.7368    0
13.7468    0
13.7568    0
13.7668    0
13.7768    0
13.7868    0
13.7968    0
13.8068    0
13.8168    0
13.8268    0
13.8368    0
13.8468    0
13.8568    0
13.8668    0
13.8768    0
13.8869    0
13.8969    0
13.9069    0
13.9169    0
13.9269    0
13.9369    0
13.9469    0
13.9569    0
13.9669    0
13.9769    0
13.9869    0
13.9969    0
14.0069    0
14.0169    0
14.0269    0
14.0369    0
14.0469    0
14.0569    0
14.0669    0
14.0769    0
14.0869    0
14.0969    0
14.1069    0
14.1169    0
14.1269    0
 14.137    0
 14.147    0
 14.157    0
 14.167    0
 14.177    0
 14.187    0
 14.197    0
 14.207    0
 14.217    0
 14.227    0
 14.237    0
 14.247    0
 14.257    0
 14.267    0
 14.277    0
 14.287    0
 14.297    0
 14.307    0
 14.317    0
 14.327    0
 14.337    0
 14.347    0
 14.357    0
 14.367    0
 14.377    0
14.3871    0
14.3971    0
14.4071    0
14.4171    0
14.4271    0
14.4371    0
14.4471    0
14.4571    0
14.4671    0
14.4771    0
14.4871    0
14.4971    0
14.5071    0
14.5171    0
14.5271    0
14.5371    0
14.5471    0
14.5571    0
14.5671    0
14.5771    0
14.5871    0
14.5971    0
14.6071    0
14.6171    0
14.6271    0
14.6372    0
14.6472    0
14.6572    0
14.6672    0
14.6772    0
14.6872    0
14.6972    0
14.7072    0
14.7172    0
14.7272    0
14.7372    0
14.7472    0
14.7572    0
14.7672    0
14.7772    0
14.7872    0
14.7972    0
14.8072    0
14.8172    0
14.8272    0
14.8372    0
14.8472    0
14.8572    0
14.8672    0
14.8772    0
14.8873    0
14.8973    0
14.9073    0
14.9173    0
14.9273    0
14.9373    0
14.9473    0
14.9573    0
14.9673    0
14.9773    0
14.9873    0
14.9973    0
15.0073    0
15.0173    0
15.0273    0
15.0373    0
15.0473    0
15.0573    0
15.0673    0
15.0773    0
15.0873    0
15.0973    0
15.1073    0
15.1173    0
15.1273    0
15.1374    0
15.1474    0
15.1574    0
15.1674    0
15.1774    0
15.1874    0
15.1974    0
15.2074    0
15.2174    0
15.2274    0
15.2374    0
15.2474    0
15.2574    0
15.2674    0
15.2774    0
15.2874    0
15.2974    0
15.3074    0
15.3174    0
15.3274    0
15.3374    0
15.3474    0
15.3574    0
15.3674    0
15.3774    0
15.3875    0
15.3975    0
15.4075    0
15.4175    0
15.4275    0
15.4375    0
15.4475    0
15.4575    0
15.4675    0
15.4775    0
15.4875    0
15.4975    0
15.5075    0
15.5175    0
15.5275    0
15.5375    0
15.5475    0
15.5575    0
15.5675    0
15.5775    0
15.5875    0
15.5975    0
15.6075    0
15.6175    0
15.6275    0
15.6376    0
15.6476    0
15.6576    0
15.6676    0
15.6776    0
15.6876    0
15.6976    0
15.7076    0
15.7176    0
15.7276    0
15.7376    0
15.7476    0
15.7576    0
15.7676    0
15.7776    0
15.7876    0
15.7976    0
15.8076    0
15.8176    0
15.8276    0
15.8376    0
15.8476    0
15.8576    0
15.8676    0
15.8776    0
15.8877    0
15.8977    0
15.9077    0
15.9177    0
15.9277    0
15.9377    0
15.9477    0
15.9577    0
15.9677    0
15.9777    0
15.9877    0
15.9977    0
16.0077    0
16.0177    0
16.0277    0
16.0377    0
16.0477    0
16.0577    0
16.0677    0
16.0777    0
16.0877    0
16.0977    0
16.1077    0
16.1177    0
16.1277    0
16.1378    0
16.1478    0
16.1578    0
16.1678    0
16.1778    0
16.1878    0
16.1978    0
16.2078    0
16.2178    0
16.2278    0
16.2378    0
16.2478    0
16.2578    0
16.2678    0
16.2778    0
16.2878    0
16.2978    0
16.3078    0
16.3178    0
16.3278    0
16.3378    0
16.3478    0
16.3578    0
16.3678    0
16.3778    0
16.3879    0
16.3979    0
16.4079    0
16.4179    0
16.4279    0
16.4379    0
16.4479    0
16.4579    0
16.4679    0
16.4779    0
16.4879    0
16.4979    0
16.5079    0
16.5179    0
16.5279    0
16.5379    0
16.5479    0
16.5579    0
16.5679    0
16.5779    0
16.5879    0
16.5979    0
16.6079    0
16.6179    0
16.6279    0
 16.638    0
 16.648    0
 16.658    0
 16.668    0
 16.678    0
 16.688    0
 16.698    0
 16.708    0
 16.718    0
 16.728    0
 16.738    0
 16.748    0
 16.758    0
 16.768    0
 16.778    0
 16.788    0
 16.798    0
 16.808    0
 16.818    0
 16.828    0
 16.838    0
 16.848    0
 16.858    0
 16.868    0
 16.878    0
16.8881    0
16.8981    0
16.9081    0
16.9181    0
16.9281    0
16.9381    0
16.9481    0
16.9581    0
16.9681    0
16.9781    0
16.9881    0
16.9981    0
17.0081    0
17.0181    0
17.0281    0
17.0381    0
17.0481    0
17.0581    0
17.0681    0
17.0781    0
17.0881    0
17.0981    0
17.1081    0
17.1181    0
17.1281    0
17.1382    0
17.1482    0
17.1582    0
17.1682    0
17.1782    0
17.1882    0
17.1982    0
17.2082    0
17.2182    0
17.2282    0
17.2382    0
17.2482    0
17.2582    0
17.2682    0
17.2782    0
17.2882    0
17.2982    0
17.3082    0
17.3182    0
17.3282    0
17.3382    0
17.3482    0
17.3582    0
17.3682    0
17.3782    0
17.3883    0
17.3983    0
17.4083    0
17.4183    0
17.4283    0
17.4383    0
17.4483    0
17.4583    0
17.4683    0
17.4783    0
17.4883    0
17.4983    0
17.5083    0
17.5183    0
17.5283    0
17.5383    0
17.5483    0
17.5583    0
17.5683    0
17.5783    0
17.5883    0
17.5983    0
17.6083    0
17.6183    0
17.6283    0
17.6384    0
17.6484    0
17.6584    0
17.6684    0
17.6784    0
17.6884    0
17.6984    0
17.7084    0
17.7184    0
17.7284    0
17.7384    0
17.7484    0
17.7584    0
17.7684    0
17.7784    0
17.7884    0
17.7984    0
17.8084    0
17.8184    0
17.8284    0
17.8384    0
17.8484    0
17.8584    0
17.8684    0
17.8784    0
17.8885    0
17.8985    0
17.9085    0
17.9185    0
17.9285    0
17.9385    0
17.9485    0
17.9585    0
17.9685    0
17.9785    0
17.9885    0
17.9985    0
18.0085    0
18.0185    0
18.0285    0
18.0385    0
18.0485    0
18.0585    0
18.0685    0
18.0785    0
18.0885    0
18.0985    0
18.1085    0
18.1185    0
18.1285    0
18.1386    0
18.1486    0
18.1586    0
18.1686    0
18.1786    0
18.1886    0
18.1986    0
18.2086    0
18.2186    0
18.2286    0
18.2386    0
18.2486    0
18.2586    0
18.2686    0
18.2786    0
18.2886    0
18.2986    0
18.3086    0
18.3186    0
18.3286    0
18.3386    0
18.3486    0
18.3586    0
18.3686    0
18.3786    0
18.3887    0
18.3987    0
18.4087    0
18.4187    0
18.4287    0
18.4387    0
18.4487    0
18.4587    0
18.4687    0
18.4787    0
18.4887    0
18.4987    0
18.5087    0
18.5187    0
18.5287    0
18.5387    0
18.5487    0
18.5587    0
18.5687    0
18.5787    0
18.5887    0
18.5987    0
18.6087    0
18.6187    0
18.6287    0
18.6388    0
18.6488    0
18.6588    0
18.6688    0
18.6788    0
18.6888    0
18.6988    0
18.7088    0
18.7188    0
18.7288    0
18.7388    0
18.7488    0
18.7588    0
18.7688    0
18.7788    0
18.7888    0
18.7988    0
18.8088    0
18.8188    0
18.8288    0
18.8388    0
18.8488    0
18.8588    0
18.8688    0
18.8788    0
18.8889    0
18.8989    0
18.9089    0
18.9189    0
18.9289    0
18.9389    0
18.9489    0
18.9589    0
18.9689    0
18.9789    0
18.9889    0
18.9989    0
19.0089    0
19.0189    0
19.0289    0
19.0389    0
19.0489    0
19.0589    0
19.0689    0
19.0789    0
19.0889    0
19.0989    0
19.1089    0
19.1189    0
19.1289    0
 19.139    0
 19.149    0
 19.159    0
 19.169    0
 19.179    0
 19.189    0
 19.199    0
 19.209    0
 19.219    0
 19.229    0
 19.239    0
 19.249    0
 19.259    0
 19.269    0
 19.279    0
 19.289    0
 19.299    0
 19.309    0
 19.319    0
 19.329    0
 19.339    0
 19.349    0
 19.359    0
 19.369    0
 19.379    0
19.3891    0
19.3991    0
19.4091    0
19.4191    0
19.4291    0
19.4391    0
19.4491    0
19.4591    0
19.4691    0
19.4791    0
19.4891    0
19.4991    0
19.5091    0
19.5191    0
19.5291    0
19.5391    0
19.5491    0
19.5591    0
19.5691    0
19.5791    0
19.5891    0
19.5991    0
19.6091    0
19.6191    0
19.6291    0
19.6392    0
19.6492    0
19.6592    0
19.6692    0
19.6792    0
19.6892    0
19.6992    0
19.7092    0
19.7192    0
19.7292    0
19.7392    0
19.7492    0
19.7592    0
19.7692    0
19.7792    0
19.7892    0
19.7992    0
19.8092    0
19.8192    0
19.8292    0
19.8392    0
19.8492    0
19.8592    0
19.8692    0
19.8792    0
19.8893    0
19.8993    0
19.9093    0
19.9193    0
19.9293    0
19.9393    0
19.9493    0
19.9593    0
19.9693    0
19.9793    0
19.9893    0
19.9993    0
20.0093    0
20.0193    0
20.0293    0
20.0393    0
20.0493    0
20.0593    0
20.0693    0
20.0793    0
20.0893    0
20.0993    0
20.1093    0
20.1193    0
20.1293    0
20.1394    0
20.1494    0
20.1594    0
20.1694    0
20.1794    0
20.1894    0
20.1994    0
20.2094    0
20.2194    0
20.2294    0
20.2394    0
20.2494    0
20.2594    0
20.2694    0
20.2794    0
20.2894    0
20.2994    0
20.3094    0
20.3194    0
20.3294    0
20.3394    0
20.3494    0
20.3594    0
20.3694    0
20.3794    0
20.3895    0
20.3995    0
20.4095    0
20.4195    0
20.4295    0
20.4395    0
20.4495    0
20.4595    0
20.4695    0
20.4795    0
20.4895    0
20.4995    0
20.5095    0
20.5195    0
20.5295    0
20.5395    0
20.5495    0
20.5595    0
20.5695    0
20.5795    0
20.5895    0
20.5995    0
20.6095    0
20.6195    0
20.6295    0
20.6396    0
20.6496    0
20.6596    0
20.6696    0
20.6796    0
20.6896    0
20.6996    0
20.7096    0
20.7196    0
20.7296    0
20.7396    0
20.7496    0
20.7596    0
20.7696    0
20.7796    0
20.7896    0
20.7996    0
20.8096    0
20.8196    0
20.8296    0
20.8396    0
20.8496    0
20.8596    0
20.8696    0
20.8796    0
20.8897    0
20.8997    0
20.9097    0
20.9197    0
20.9297    0
20.9397    0
20.9497    0
20.9597    0
20.9697    0
20.9797    0
20.9897    0
20.9997    0
21.0097    0
21.0197    0
21.0297    0
21.0397    0
21.0497    0
21.0597    0
21.0697    0
21.0797    0
21.0897    0
21.0997    0
21.1097    0
21.1197    0
21.1297    0
21.1398    0
21.1498    0
21.1598    0
21.1698    0
21.1798    0
21.1898    0
21.1998    0
21.2098    0
21.2198    0
21.2298    0
21.2398    0
21.2498    0
21.2598    0
21.2698    0
21.2798    0
21.2898    0
21.2998    0
21.3098    0
21.3198    0
21.3298    0
21.3398    0
21.3498    0
21.3598    0
21.3698    0
21.3798    0
21.3899    0
21.3999    0
21.4099    0
21.4199    0
21.4299    0
21.4399    0
21.4499    0
21.4599    0
21.4699    0
21.4799    0
21.4899    0
21.4999    0
21.5099    0
21.5199    0
21.5299    0
21.5399    0
21.5499    0
21.5599    0
21.5699    0
21.5799    0
21.5899    0
21.5999    0
21.6099    0
21.6199    0
21.6299    0
  21.64    0
  21.65    0
  21.66    0
  21.67    0
  21.68    0
  21.69    0
   21.7    0
  21.71    0
  21.72    0
  21.73    0
  21.74    0
  21.75    0
  21.76    0
  21.77    0
  21.78    0
  21.79    0
   21.8    0
  21.81    0
  21.82    0
  21.83    0
  21.84    0
  21.85    0
  21.86    0
  21.87    0
  21.88    0
21.8901    0
21.9001    0
21.9101    0
21.9201    0
21.9301    0
21.9401    0
21.9501    0
21.9601    0
21.9701    0
21.9801    0
21.9901    0
22.0001    0
22.0101    0
22.0201    0
22.0301    0
22.0401    0
22.0501    0
22.0601    0
22.0701    0
22.0801    0
22.0901    0
22.1001    0
22.1101    0
22.1201    0
22.1301    0
22.1402    0
22.1502    0
22.1602    0
22.1702    0
22.1802    0
22.1902    0
22.2002    0
22.2102    0
22.2202    0
22.2302    0
22.2402    0
22.2502    0
22.2602    0
22.2702    0
22.2802    0
22.2902    0
22.3002    0
22.3102    0
22.3202    0
22.3302    0
22.3402    0
22.3502    0
22.3602    0
22.3702    0
22.3802    0
22.3903    0
22.4003    0
22.4103    0
22.4203    0
22.4303    0
22.4403    0
22.4503    0
22.4603    0
22.4703    0
22.4803    0
22.4903    0
22.5003    0
22.5103    0
22.5203    0
22.5303    0
22.5403    0
22.5503    0
22.5603    0
22.5703    0
22.5803    0
22.5903    0
22.6003    0
22.6103    0
22.6203    0
22.6303    0
22.6404    0
22.6504    0
22.6604    0
22.6704    0
22.6804    0
22.6904    0
22.7004    0
22.7104    0
22.7204    0
22.7304    0
22.7404    0
22.7504    0
22.7604    0
22.7704    0
22.7804    0
22.7904    0
22.8004    0
22.8104    0
22.8204    0
22.8304    0
22.8404    0
22.8504    0
22.8604    0
22.8704    0
22.8804    0
22.8905    0
22.9005    0
22.9105    0
22.9205    0
22.9305    0
22.9405    0
22.9505    0
22.9605    0
22.9705    0
22.9805    0
22.9905    0
23.0005    0
23.0105    0
23.0205    0
23.0305    0
23.0405    0
23.0505    0
23.0605    0
23.0705    0
23.0805    0
23.0905    0
23.1005    0
23.1105    0
23.1205    0
23.1305    0
23.1406    0
23.1506    0
23.1606    0
23.1706    0
23.1806    0
23.1906    0
23.2006    0
23.2106    0
23.2206    0
23.2306    0
23.2406    0
23.2506    0
23.2606    0
23.2706    0
23.2806    0
23.2906    0
23.3006    0
23.3106    0
23.3206    0
23.3306    0
23.3406    0
23.3506    0
23.3606    0
23.3706    0
23.3806    0
23.3907    0
23.4007    0
23.4107    0
23.4207    0
23.4307    0
23.4407    0
23.4507    0
23.4607    0
23.4707    0
23.4807    0
23.4907    0
23.5007    0
23.5107    0
23.5207    0
23.5307    0
23.5407    0
23.5507    0
23.5607    0
23.5707    0
23.5807    0
23.5907    0
23.6007    0
23.6107    0
23.6207    0
23.6307    0
23.6408    0
23.6508    0
23.6608    0
23.6708    0
23.6808    0
23.6908    0
23.7008    0
23.7108    0
23.7208    0
23.7308    0
23.7408    0
23.7508    0
23.7608    0
23.7708    0
23.7808    0
23.7908    0
23.8008    0
23.8108    0
23.8208    0
23.8308    0
23.8408    0
23.8508    0
23.8608    0
23.8708    0
23.8808    0
23.8909    0
23.9009    0
23.9109    0
23.9209    0
23.9309    0
23.9409    0
23.9509    0
23.9609    0
23.9709    0
23.9809    0
23.9909    0
24.0009    0
24.0109    0
24.0209    0
24.0309    0
24.0409    0
24.0509    0
24.0609    0
24.0709    0
24.0809    0
24.0909    0
24.1009    0
24.1109    0
24.1209    0
24.1309    0
 24.141    0
 24.151    0
 24.161    0
 24.171    0
 24.181    0
 24.191    0
 24.201    0
 24.211    0
 24.221    0
 24.231    0
 24.241    0
 24.251    0
 24.261    0
 24.271    0
 24.281    0
 24.291    0
 24.301    0
 24.311    0
 24.321    0
 24.331    0
 24.341    0
 24.351    0
 24.361    0
 24.371    0
 24.381    0
24.3911    0
24.4011    0
24.4111    0
24.4211    0
24.4311    0
24.4411    0
24.4511    0
24.4611    0
24.4711    0
24.4811    0
24.4911    0
24.5011    0
24.5111    0
24.5211    0
24.5311    0
24.5411    0
24.5511    0
24.5611    0
24.5711    0
24.5811    0
24.5911    0
24.6011    0
24.6111    0
24.6211    0
24.6311    0
24.6412    0
24.6512    0
24.6612    0
24.6712    0
24.6812    0
24.6912    0
24.7012    0
24.7112    0
24.7212    0
24.7312    0
24.7412    0
24.7512    0
24.7612    0
24.7712    0
24.7812    0
24.7912    0
24.8012    0
24.8112    0
24.8212    0
24.8312    0
24.8412    0
24.8512    0
24.8612    0
24.8712    0
24.8812    0
24.8913    0
24.9013    0
24.9113    0
24.9213    0
24.9313    0
24.9413    0
24.9513    0
24.9613    0
24.9713    0
24.9813    0
24.9913    0
25.0013    0
25.0113    0
25.0213    0
25.0313    0
25.0413    0
25.0513    0
25.0613    0
25.0713    0
25.0813    0
25.0913    0
25.1013    0
25.1113    0
25.1213    0
25.1313    0
25.1414    0
25.1514    0
25.1614    0
25.1714    0
25.1814    0
25.1914    0
25.2014    0
25.2114    0
25.2214    0
25.2314    0
25.2414    0
25.2514    0
25.2614    0
25.2714    0
25.2814    0
25.2914    0
25.3014    0
25.3114    0
25.3214    0
25.3314    0
25.3414    0
25.3514    0
25.3614    0
25.3714    0
25.3814    0
25.3915    0
25.4015    0
25.4115    0
25.4215    0
25.4315    0
25.4415    0
25.4515    0
25.4615    0
25.4715    0
25.4815    0
25.4915    0
25.5015    0
25.5115    0
25.5215    0
25.5315    0
25.5415    0
25.5515    0
25.5615    0
25.5715    0
25.5815    0
25.5915    0
25.6015    0
25.6115    0
25.6215    0
25.6315    0
25.6416    0
25.6516    0
25.6616    0
25.6716    0
25.6816    0
25.6916    0
25.7016    0
25.7116    0
25.7216    0
25.7316    0
25.7416    0
25.7516    0
25.7616    0
25.7716    0
25.7816    0
25.7916    0
25.8016    0
25.8116    0
25.8216    0
25.8316    0
25.8416    0
25.8516    0
25.8616    0
25.8716    0
25.8816    0
25.8917    0
25.9017    0
25.9117    0
25.9217    0
25.9317    0
25.9417    0
25.9517    0
25.9617    0
25.9717    0
25.9817    0
25.9917    0
26.0017    0
26.0117    0
26.0217    0
26.0317    0
26.0417    0
26.0517    0
26.0617    0
26.0717    0
26.0817    0
26.0917    0
26.1017    0
26.1117    0
26.1217    0
26.1317    0
26.1418    0
26.1518    0
26.1618    0
26.1718    0
26.1818    0
26.1918    0
26.2018    0
26.2118    0
26.2218    0
26.2318    0
26.2418    0
26.2518    0
26.2618    0
26.2718    0
26.2818    0
26.2918    0
26.3018    0
26.3118    0
26.3218    0
26.3318    0
26.3418    0
26.3518    0
26.3618    0
26.3718    0
26.3818    0
26.3919    0
26.4019    0
26.4119    0
26.4219    0
26.4319    0
26.4419    0
26.4519    0
26.4619    0
26.4719    0
26.4819    0
26.4919    0
26.5019    0
26.5119    0
26.5219    0
26.5319    0
26.5419    0
26.5519    0
26.5619    0
26.5719    0
26.5819    0
26.5919    0
26.6019    0
26.6119    0
26.6219    0
26.6319    0
 26.642    0
 26.652    0
 26.662    0
 26.672    0
 26.682    0
 26.692    0
 26.702    0
 26.712    0
 26.722    0
 26.732    0
 26.742    0
 26.752    0
 26.762    0
 26.772    0
 26.782    0
 26.792    0
 26.802    0
 26.812    0
 26.822    0
 26.832    0
 26.842    0
 26.852    0
 26.862    0
 26.872    0
 26.882    0
26.8921    0
26.9021    0
26.9121    0
26.9221    0
26.9321    0
26.9421    0
26.9521    0
26.9621    0
26.9721    0
26.9821    0
26.9921    0
27.0021    0
27.0121    0
27.0221    0
27.0321    0
27.0421    0
27.0521    0
27.0621    0
27.0721    0
27.0821    0
27.0921    0
27.1021    0
27.1121    0
27.1221    0
27.1321    0
27.1422    0
27.1522    0
27.1622    0
27.1722    0
27.1822    0
27.1922    0
27.2022    0
27.2122    0
27.2222    0
27.2322    0
27.2422    0
27.2522    0
27.2622    0
27.2722    0
27.2822    0
27.2922    0
27.3022    0
27.3122    0
27.3222    0
27.3322    0
27.3422    0
27.3522    0
27.3622    0
27.3722    0
27.3822    0
27.3923    0
27.4023    0
27.4123    0
27.4223    0
27.4323    0
27.4423    0
27.4523    0
27.4623    0
27.4723    0
27.4823    0
27.4923    0
27.5023    0
27.5123    0
27.5223    0
27.5323    0
27.5423    0
27.5523    0
27.5623    0
27.5723    0
27.5823    0
27.5923    0
27.6023    0
27.6123    0
27.6223    0
27.6323    0
27.6424    0
27.6524    0
27.6624    0
27.6724    0
27.6824    0
27.6924    0
27.7024    0
27.7124    0
27.7224    0
27.7324    0
27.7424    0
27.7524    0
27.7624    0
27.7724    0
27.7824    0
27.7924    0
27.8024    0
27.8124    0
27.8224    0
27.8324    0
27.8424    0
27.8524    0
27.8624    0
27.8724    0
27.8824    0
27.8925    0
27.9025    0
27.9125    0
27.9225    0
27.9325    0
27.9425    0
27.9525    0
27.9625    0
27.9725    0
27.9825    0
27.9925    0
28.0025    0
28.0125    0
28.0225    0
28.0325    0
28.0425    0
28.0525    0
28.0625    0
28.0725    0
28.0825    0
28.0925    0
28.1025    0
28.1125    0
28.1225    0
28.1325    0
28.1426    0
28.1526    0
28.1626    0
28.1726    0
28.1826    0
28.1926    0
28.2026    0
28.2126    0
28.2226    0
28.2326    0
28.2426    0
28.2526    0
28.2626    0
28.2726    0
28.2826    0
28.2926    0
28.3026    0
28.3126    0
28.3226    0
28.3326    0
28.3426    0
28.3526    0
28.3626    0
28.3726    0
28.3826    0
28.3927    0
28.4027    0
28.4127    0
28.4227    0
28.4327    0
28.4427    0
28.4527    0
28.4627    0
28.4727    0
28.4827    0
28.4927    0
28.5027    0
28.5127    0
28.5227    0
28.5327    0
28.5427    0
28.5527    0
28.5627    0
28.5727    0
28.5827    0
28.5927    0
28.6027    0
28.6127    0
28.6227    0
28.6327    0
28.6428    0
28.6528    0
28.6628    0
28.6728    0
28.6828    0
28.6928    0
28.7028    0
28.7128    0
28.7228    0
28.7328    0
28.7428    0
28.7528    0
28.7628    0
28.7728    0
28.7828    0
28.7928    0
28.8028    0
28.8128    0
28.8228    0
28.8328    0
28.8428    0
28.8528    0
28.8628    0
28.8728    0
28.8828    0
28.8929    0
28.9029    0
28.9129    0
28.9229    0
28.9329    0
28.9429    0
28.9529    0
28.9629    0
28.9729    0
28.9829    0
28.9929    0
29.0029    0
29.0129    0
29.0229    0
29.0329    0
29.0429    0
29.0529    0
29.0629    0
29.0729    0
29.0829    0
29.0929    0
29.1029    0
29.1129    0
29.1229    0
29.1329    0
 29.143    0
 29.153    0
 29.163    0
 29.173    0
 29.183    0
 29.193    0
 29.203    0
 29.213    0
 29.223    0
 29.233    0
 29.243    0
 29.253    0
 29.263    0
 29.273    0
 29.283    0
 29.293    0
 29.303    0
 29.313    0
 29.323    0
 29.333    0
 29.343    0
 29.353    0
 29.363    0
 29.373    0
 29.383    0
29.3931    0
29.4031    0
29.4131    0
29.4231    0
29.4331    0
29.4431    0
29.4531    0
29.4631    0
29.4731    0
29.4831    0
29.4931    0
29.5031    0
29.5131    0
29.5231    0
29.5331    0
29.5431    0
29.5531    0
29.5631    0
29.5731    0
29.5831    0
29.5931    0
29.6031    0
29.6131    0
29.6231    0
29.6331    0
29.6432    0
29.6532    0
29.6632    0
29.6732    0
29.6832    0
29.6932    0
29.7032    0
29.7132    0
29.7232    0
29.7332    0
29.7432    0
29.7532    0
29.7632    0
29.7732    0
29.7832    0
29.7932    0
29.8032    0
29.8132    0
29.8232    0
29.8332    0
29.8432    0
29.8532    0
29.8632    0
29.8732    0
29.8832    0
29.8933    0
29.9033    0
29.9133    0
29.9233    0
29.9333    0
29.9433    0
29.9533    0
29.9633    0
29.9733    0
29.9833    0
29.9933    0
30.0033    0
30.0133    0
30.0233    0
30.0333    0
30.0433    0
30.0533    0
30.0633    0
30.0733    0
30.0833    0
30.0933    0
30.1033    0
30.1133    0
30.1233    0
30.1333    0
30.1434    0
30.1534    0
30.1634    0
30.1734    0
30.1834    0
30.1934    0
30.2034    0
30.2134    0
30.2234    0
30.2334    0
30.2434    0
30.2534    0
30.2634    0
30.2734    0
30.2834    0
30.2934    0
30.3034    0
30.3134    0
30.3234    0
30.3334    0
30.3434    0
30.3534    0
30.3634    0
30.3734    0
30.3834    0
30.3935    0
30.4035    0
30.4135    0
30.4235    0
30.4335    0
30.4435    0
30.4535    0
30.4635    0
30.4735    0
30.4835    0
30.4935    0
30.5035    0
30.5135    0
30.5235    0
30.5335    0
30.5435    0
30.5535    0
30.5635    0
30.5735    0
30.5835    0
30.5935    0
30.6035    0
30.6135    0
30.6235    0
30.6335    0
30.6436    0
30.6536    0
30.6636    0
30.6736    0
30.6836    0
30.6936    0
30.7036    0
30.7136    0
30.7236    0
30.7336    0
30.7436    0
30.7536    0
30.7636    0
30.7736    0
30.7836    0
30.7936    0
30.8036    0
30.8136    0
30.8236    0
30.8336    0
30.8436    0
30.8536    0
30.8636    0
30.8736    0
30.8836    0
30.8937    0
30.9037    0
30.9137    0
30.9237    0
30.9337    0
30.9437    0
30.9537    0
30.9637    0
30.9737    0
30.9837    0
30.9937    0
31.0037    0
31.0137    0
31.0237    0
31.0337    0
31.0437    0
31.0537    0
31.0637    0
31.0737    0
31.0837    0
31.0937    0
31.1037    0
31.1137    0
31.1237    0
31.1337    0
31.1438    0
31.1538    0
31.1638    0
31.1738    0
31.1838    0
31.1938    0
31.2038    0
31.2138    0
31.2238    0
31.2338    0
31.2438    0
31.2538    0
31.2638    0
31.2738    0
31.2838    0
31.2938    0
31.3038    0
31.3138    0
31.3238    0
31.3338    0
31.3438    0
31.3538    0
31.3638    0
31.3738    0
31.3838    0
31.3939    0
31.4039    0
31.4139    0
31.4239    0
31.4339    0
31.4439    0
31.4539    0
31.4639    0
31.4739    0
31.4839    0
31.4939    0
31.5039    0
31.5139    0
31.5239    0
31.5339    0
31.5439    0
31.5539    0
31.5639    0
31.5739    0
31.5839    0
31.5939    0
31.6039    0
31.6139    0
31.6239    0
31.6339    0
 31.644    0
 31.654    0
 31.664    0
 31.674    0
 31.684    0
 31.694    0
 31.704    0
 31.714    0
 31.724    0
 31.734    0
 31.744    0
 31.754    0
 31.764    0
 31.774    0
 31.784    0
 31.794    0
 31.804    0
 31.814    0
 31.824    0
 31.834    0
 31.844    0
 31.854    0
 31.864    0
 31.874    0
 31.884    0
31.8941    0
31.9041    0
31.9141    0
31.9241    0
31.9341    0
31.9441    0
31.9541    0
31.9641    0
31.9741    0
31.9841    0
31.9941    0
32.0041    0
32.0141    0
32.0241    0
32.0341    0
32.0441    0
32.0541    0
32.0641    0
32.0741    0
32.0841    0
32.0941    0
32.1041    0
32.1141    0
32.1241    0
32.1341    0
32.1442    0
32.1542    0
32.1642    0
32.1742    0
32.1842    0
32.1942    0
32.2042    0
32.2142    0
32.2242    0
32.2342    0
32.2442    0
32.2542    0
32.2642    0
32.2742    0
32.2842    0
32.2942    0
32.3042    0
32.3142    0
32.3242    0
32.3342    0
32.3442    0
32.3542    0
32.3642    0
32.3742    0
32.3842    0
32.3943    0
32.4043    0
32.4143    0
32.4243    0
32.4343    0
32.4443    0
32.4543    0
32.4643    0
32.4743    0
32.4843    0
32.4943    0
32.5043    0
32.5143    0
32.5243    0
32.5343    0
32.5443    0
32.5543    0
32.5643    0
32.5743    0
32.5843    0
32.5943    0
32.6043    0
32.6143    0
32.6243    0
32.6343    0
32.6444    0
32.6544    0
32.6644    0
32.6744    0
32.6844    0
32.6944    0
32.7044    0
32.7144    0
32.7244    0
32.7344    0
32.7444    0
32.7544    0
32.7644    0
32.7744    0
32.7844    0
32.7944    0
32.8044    0
32.8144    0
32.8244    0
32.8344    0
32.8444    0
32.8544    0
32.8644    0
32.8744    0
32.8844    0
32.8945    0
32.9045    0
32.9145    0
32.9245    0
32.9345    0
32.9445    0
32.9545    0
32.9645    0
32.9745    0
32.9845    0
32.9945    0
33.0045    0
33.0145    0
33.0245    0
33.0345    0
33.0445    0
33.0545    0
33.0645    0
33.0745    0
33.0845    0
33.0945    0
33.1045    0
33.1145    0
33.1245    0
33.1345    0
33.1446    0
33.1546    0
33.1646    0
33.1746    0
33.1846    0
33.1946    0
33.2046    0
33.2146    0
33.2246    0
33.2346    0
33.2446    0
33.2546    0
33.2646    0
33.2746    0
33.2846    0
33.2946    0
33.3046    0
33.3146    0
33.3246    0
33.3346    0
33.3446    0
33.3546    0
33.3646    0
33.3746    0
33.3846    0
33.3947    0
33.4047    0
33.4147    0
33.4247    0
33.4347    0
33.4447    0
33.4547    0
33.4647    0
33.4747    0
33.4847    0
33.4947    0
33.5047    0
33.5147    0
33.5247    0
33.5347    0
33.5447    0
33.5547    0
33.5647    0
33.5747    0
33.5847    0
33.5947    0
33.6047    0
33.6147    0
33.6247    0
33.6347    0
33.6448    0
33.6548    0
33.6648    0
33.6748    0
33.6848    0
33.6948    0
33.7048    0
33.7148    0
33.7248    0
33.7348    0
33.7448    0
33.7548    0
33.7648    0
33.7748    0
33.7848    0
33.7948    0
33.8048    0
33.8148    0
33.8248    0
33.8348    0
33.8448    0
33.8548    0
33.8648    0
33.8748    0
33.8848    0
33.8949    0
33.9049    0
33.9149    0
33.9249    0
33.9349    0
33.9449    0
33.9549    0
33.9649    0
33.9749    0
33.9849    0
33.9949    0
34.0049    0
34.0149    0
34.0249    0
34.0349    0
34.0449    0
34.0549    0
34.0649    0
34.0749    0
34.0849    0
34.0949    0
34.1049    0
34.1149    0
34.1249    0
34.1349    0
 34.145    0
 34.155    0
 34.165    0
 34.175    0
 34.185    0
 34.195    0
 34.205    0
 34.215    0
 34.225    0
 34.235    0
 34.245    0
 34.255    0
 34.265    0
 34.275    0
 34.285    0
 34.295    0
 34.305    0
 34.315    0
 34.325    0
 34.335    0
 34.345    0
 34.355    0
 34.365    0
 34.375    0
 34.385    0
34.3951    0
34.4051    0
34.4151    0
34.4251    0
34.4351    0
34.4451    0
34.4551    0
34.4651    0
34.4751    0
34.4851    0
34.4951    0
34.5051    0
34.5151    0
34.5251    0
34.5351    0
34.5451    0
34.5551    0
34.5651    0
34.5751    0
34.5851    0
34.5951    0
34.6051    0
34.6151    0
34.6251    0
34.6351    0
34.6452    0
34.6552    0
34.6652    0
34.6752    0
34.6852    0
34.6952    0
34.7052    0
34.7152    0
34.7252    0
34.7352    0
34.7452    0
34.7552    0
34.7652    0
34.7752    0
34.7852    0
34.7952    0
34.8052    0
34.8152    0
34.8252    0
34.8352    0
34.8452    0
34.8552    0
34.8652    0
34.8752    0
34.8852    0
34.8953    0
34.9053    0
34.9153    0
34.9253    0
34.9353    0
34.9453    0
34.9553    0
34.9653    0
34.9753    0
34.9853    0
34.9953    0
35.0053    0
35.0153    0
35.0253    0
35.0353    0
35.0453    0
35.0553    0
35.0653    0
35.0753    0
35.0853    0
35.0953    0
35.1053    0
35.1153    0
35.1253    0
35.1353    0
35.1454    0
35.1554    0
35.1654    0
35.1754    0
35.1854    0
35.1954    0
35.2054    0
35.2154    0
35.2254    0
35.2354    0
35.2454    0
35.2554    0
35.2654    0
35.2754    0
35.2854    0
35.2954    0
35.3054    0
35.3154    0
35.3254    0
35.3354    0
35.3454    0
35.3554    0
35.3654    0
35.3754    0
35.3854    0
35.3955    0
35.4055    0
35.4155    0
35.4255    0
35.4355    0
35.4455    0
35.4555    0
35.4655    0
35.4755    0
35.4855    0
35.4955    0
35.5055    0
35.5155    0
35.5255    0
35.5355    0
35.5455    0
35.5555    0
35.5655    0
35.5755    0
35.5855    0
35.5955    0
35.6055    0
35.6155    0
35.6255    0
35.6355    0
35.6456    0
35.6556    0
35.6656    0
35.6756    0
35.6856    0
35.6956    0
35.7056    0
35.7156    0
35.7256    0
35.7356    0
35.7456    0
35.7556    0
35.7656    0
35.7756    0
35.7856    0
35.7956    0
35.8056    0
35.8156    0
35.8256    0
35.8356    0
35.8456    0
35.8556    0
35.8656    0
35.8756    0
35.8856    0
35.8957    0
35.9057    0
35.9157    0
35.9257    0
35.9357    0
35.9457    0
35.9557    0
35.9657    0
35.9757    0
35.9857    0
35.9957    0
36.0057    0
36.0157    0
36.0257    0
36.0357    0
36.0457    0
36.0557    0
36.0657    0
36.0757    0
36.0857    0
36.0957    0
36.1057    0
36.1157    0
36.1257    0
36.1357    0
36.1458    0
36.1558    0
36.1658    0
36.1758    0
36.1858    0
36.1958    0
36.2058    0
36.2158    0
36.2258    0
36.2358    0
36.2458    0
36.2558    0
36.2658    0
36.2758    0
36.2858    0
36.2958    0
36.3058    0
36.3158    0
36.3258    0
36.3358    0
36.3458    0
36.3558    0
36.3658    0
36.3758    0
36.3858    0
36.3959    0
36.4059    0
36.4159    0
36.4259    0
36.4359    0
36.4459    0
36.4559    0
36.4659    0
36.4759    0
36.4859    0
36.4959    0
36.5059    0
36.5159    0
36.5259    0
36.5359    0
36.5459    0
36.5559    0
36.5659    0
36.5759    0
36.5859    0
36.5959    0
36.6059    0
36.6159    0
36.6259    0
36.6359    0
 36.646    0
 36.656    0
 36.666    0
 36.676    0
 36.686    0
 36.696    0
 36.706    0
 36.716    0
 36.726    0
 36.736    0
 36.746    0
 36.756    0
 36.766    0
 36.776    0
 36.786    0
 36.796    0
 36.806    0
 36.816    0
 36.826    0
 36.836    0
 36.846    0
 36.856    0
 36.866    0
 36.876    0
 36.886    0
36.8961    0
36.9061    0
36.9161    0
36.9261    0
36.9361    0
36.9461    0
36.9561    0
36.9661    0
36.9761    0
36.9861    0
36.9961    0
37.0061    0
37.0161    0
37.0261    0
37.0361    0
37.0461    0
37.0561    0
37.0661    0
37.0761    0
37.0861    0
37.0961    0
37.1061    0
37.1161    0
37.1261    0
37.1361    0
37.1462    0
37.1562    0
37.1662    0
37.1762    0
37.1862    0
37.1962    0
37.2062    0
37.2162    0
37.2262    0
37.2362    0
37.2462    0
37.2562    0
37.2662    0
37.2762    0
37.2862    0
37.2962    0
37.3062    0
37.3162    0
37.3262    0
37.3362    0
37.3462    0
37.3562    0
37.3662    0
37.3762    0
37.3862    0
37.3963    0
37.4063    0
37.4163    0
37.4263    0
37.4363    0
37.4463    0
37.4563    0
37.4663    0
37.4763    0
37.4863    0
37.4963    0
37.5063    0
37.5163    0
37.5263    0
37.5363    0
37.5463    0
37.5563    0
37.5663    0
37.5763    0
37.5863    0
37.5963    0
37.6063    0
37.6163    0
37.6263    0
37.6363    0
37.6464    0
37.6564    0
37.6664    0
37.6764    0
37.6864    0
37.6964    0
37.7064    0
37.7164    0
37.7264    0
37.7364    0
37.7464    0
37.7564    0
37.7664    0
37.7764    0
37.7864    0
37.7964    0
37.8064    0
37.8164    0
37.8264    0
37.8364    0
37.8464    0
37.8564    0
37.8664    0
37.8764    0
37.8864    0
37.8965    0
37.9065    0
37.9165    0
37.9265    0
37.9365    0
37.9465    0
37.9565    0
37.9665    0
37.9765    0
37.9865    0
37.9965    0
38.0065    0
38.0165    0
38.0265    0
38.0365    0
38.0465    0
38.0565    0
38.0665    0
38.0765    0
38.0865    0
38.0965    0
38.1065    0
38.1165    0
38.1265    0
38.1365    0
38.1466    0
38.1566    0
38.1666    0
38.1766    0
38.1866    0
38.1966    0
38.2066    0
38.2166    0
38.2266    0
38.2366    0
38.2466    0
38.2566    0
38.2666    0
38.2766    0
38.2866    0
38.2966    0
38.3066    0
38.3166    0
38.3266    0
38.3366    0
38.3466    0
38.3566    0
38.3666    0
38.3766    0
38.3866    0
38.3967    0
38.4067    0
38.4167    0
38.4267    0
38.4367    0
38.4467    0
38.4567    0
38.4667    0
38.4767    0
38.4867    0
38.4967    0
38.5067    0
38.5167    0
38.5267    0
38.5367    0
38.5467    0
38.5567    0
38.5667    0
38.5767    0
38.5867    0
38.5967    0
38.6067    0
38.6167    0
38.6267    0
38.6367    0
38.6468    0
38.6568    0
38.6668    0
38.6768    0
38.6868    0
38.6968    0
38.7068    0
38.7168    0
38.7268    0
38.7368    0
38.7468    0
38.7568    0
38.7668    0
38.7768    0
38.7868    0
38.7968    0
38.8068    0
38.8168    0
38.8268    0
38.8368    0
38.8468    0
38.8568    0
38.8668    0
38.8768    0
38.8868    0
38.8969    0
38.9069    0
38.9169    0
38.9269    0
38.9369    0
38.9469    0
38.9569    0
38.9669    0
38.9769    0
38.9869    0
38.9969    0
39.0069    0
39.0169    0
39.0269    0
39.0369    0
39.0469    0
39.0569    0
39.0669    0
39.0769    0
39.0869    0
39.0969    0
39.1069    0
39.1169    0
39.1269    0
39.1369    0
 39.147    0
 39.157    0
 39.167    0
 39.177    0
 39.187    0
 39.197    0
 39.207    0
 39.217    0
 39.227    0
 39.237    0
 39.247    0
 39.257    0
 39.267    0
 39.277    0
 39.287    0
 39.297    0
 39.307    0
 39.317    0
 39.327    0
 39.337    0
 39.347    0
 39.357    0
 39.367    0
 39.377    0
 39.387    0
39.3971    0
39.4071    0
39.4171    0
39.4271    0
39.4371    0
39.4471    0
39.4571    0
39.4671    0
39.4771    0
39.4871    0
39.4971    0
39.5071    0
39.5171    0
39.5271    0
39.5371    0
39.5471    0
39.5571    0
39.5671    0
39.5771    0
39.5871    0
39.5971    0
39.6071    0
39.6171    0
39.6271    0
39.6371    0
39.6472    0
39.6572    0
39.6672    0
39.6772    0
39.6872    0
39.6972    0
39.7072    0
39.7172    0
39.7272    0
39.7372    0
39.7472    0
39.7572    0
39.7672    0
39.7772    0
39.7872    0
39.7972    0
39.8072    0
39.8172    0
39.8272    0
39.8372    0
39.8472    0
39.8572    0
39.8672    0
39.8772    0
39.8872    0
39.8973    0
39.9073    0
39.9173    0
39.9273    0
39.9373    0
39.9473    0
39.9573    0
39.9673    0
39.9773    0
39.9873    0
39.9973    0
40.0073    0
